 # wavelength [micron] / Albedo
  5.000000074505806E-002  0.413472473621368     
  5.564875528216362E-002  0.416352182626724     
  6.193568184971809E-002  0.416180670261383     
  6.893286854028702E-002  0.375126987695694     
  7.672057300806046E-002  0.354647099971771     
  8.538808673620224E-002  0.350551307201385     
  9.503481537103653E-002  0.359055101871490     
  0.105771400034428       0.382877379655838     
  0.117720901966095       0.396272897720337     
  0.131020501255989       0.425067961215973     
  0.145822495222092       0.449529886245728     
  0.162296801805496       0.456781536340714     
  0.180632293224335       0.485306084156036     
  0.201039299368858       0.500540792942047     
  0.223751693964005       0.539541423320770     
  0.249030098319054       0.596608102321625     
  0.277164310216904       0.607501745223999     
  0.308477014303207       0.606322407722473     
  0.343327194452286       0.606271088123322     
  0.382114589214325       0.603751778602600     
  0.425284087657928       0.600833058357239     
  0.473330587148666       0.598318815231323     
  0.526805222034454       0.592607319355011     
  0.586320996284485       0.586148023605347     
  0.652560710906982       0.576525449752808     
  0.726283788681030       0.565875828266144     
  0.808335781097412       0.551349580287933     
  0.899657726287842       0.531317591667175     
   1.00129699707031       0.506649971008301     
   1.11441802978516       0.477705657482147     
   1.24031996726990       0.441591829061508     
   1.38044500350952       0.403362959623337     
   1.53640103340149       0.363388001918793     
   1.70997595787048       0.320548444986343     
   1.90316104888916       0.275200009346008     
   2.11817002296448       0.229668930172920     
   2.35747098922729       0.187092170119286     
   2.62380599975586       0.149599298834801     
   2.92023110389709       0.117977075278759     
   3.25014495849609       9.193479269742966E-002
   3.61733102798462       7.109289616346359E-002
   4.02599906921387       5.451463162899017E-002
   4.48083591461182       4.148508608341217E-002
   4.98706007003784       3.109857626259327E-002
   5.55047321319580       2.276003547012806E-002
   6.17753791809082       1.603162661194801E-002
   6.87544584274292       1.107313577085733E-002
   7.65220117568970       5.495340563356876E-003
   8.51670932769775       1.305829500779510E-003
   9.47888565063477       7.332941167987883E-004
   10.5497598648071       7.303989259526134E-004
   11.7416200637817       7.341151358559728E-004
   13.0681400299072       7.081278017722070E-004
   14.5445098876953       4.964419058524072E-004
   16.1876792907715       2.497801615390927E-004
   18.0164794921875       1.591449399711564E-004
   20.0519008636475       1.337833091383800E-004
   22.3172607421875       1.116064377129078E-004
   24.8385601043701       8.985504246084020E-005
   27.6446990966797       7.120693771867082E-005
   30.7678604125977       5.605837577604689E-005
   34.2438583374023       4.404736318974756E-005
   38.1125602722168       3.467375063337386E-005
   42.4183311462402       2.784197386063170E-005
   47.2105484008789       2.255173239973374E-005
   52.5441703796387       1.836911360442173E-005
   58.4803504943848       1.502082795923343E-005
   65.0871810913086       1.231139231094858E-005
   72.4404067993164       1.009070820146007E-005
   80.6243667602539       8.263411473308224E-006
   89.7329330444336       6.751456112397136E-006
   99.8705062866211       5.499798135133460E-006
   111.153396606445       4.464748599275481E-006
   123.710998535156       3.591361974031315E-006
   137.687194824219       2.866920567612397E-006
   153.242401123047       2.333759312023176E-006
   170.554992675781       1.917580448207445E-006
   189.823501586914       1.565503794154210E-006
   211.268798828125       1.272263148166530E-006
   235.136993408203       1.031228521242156E-006
   261.701599121094       8.347832931576704E-007
   291.267395019531       6.751423597961548E-007
   324.173309326172       5.455639211504604E-007
   360.796813964844       4.406566631587339E-007
   401.557891845703       3.560275558811554E-007
   446.924011230469       2.874279516618117E-007
   497.415313720703       2.319594898381183E-007
   553.610778808594       1.872545283276850E-007
   616.155029296875       1.511459117864433E-007
   685.765197753906       1.220040530824917E-007
   763.239624023438       9.845524573393050E-008
   849.466674804688       7.945875069026442E-008
   945.435302734375       6.412442132841534E-008
   1052.24597167969       5.169392380821591E-008
   1171.12402343750       4.213389814822222E-008
   1303.43103027344       3.395503966885371E-008
   1450.68701171875       2.753853500792047E-008
   1614.57800292969       2.211699623444474E-008
   1796.98498535156       1.778941616237262E-008
   2000.00000000000       1.455611542411361E-008
